Comment: Only preliminary results are available for alpha+oxygen at the moment.

Version: R33
Source: SigmaCalc 2.0. File created 9-12-2022
Name: A.Gurbich
Address1: Institute of Physics and Power Engineering
Address2: Bondarenko sq. 1
Address3: 249020
Address4: Russia
Serial Number: 
Reaction: 16O(a,a0)16O
Distribution: Energy
Composition: 
Masses:    4.0026,   15.9949,    4.0026,   15.9949
Zeds: 2, 8, 2, 8
Qvalue:      0.00,      0.00,      0.00,      0.00,      0.00
Theta: 170.0
Sigfactors: 1.00, 0.00
Enfactors: 1.00, 0.00, 0.00, 0.00
Units: rr
Data:
1769.0 0.0 1.007 0.0 
1819.0 0.0 1.007 0.0 
1857.0 0.0 1.007 0.0 
1870.0 0.0 1.007 0.0 
1920.0 0.0 1.007 0.0 
1970.0 0.0 1.006 0.0 
2050.0 0.0 1.006 0.0 
2100.0 0.0 1.004 0.0 
2150.0 0.0 1.003 0.0 
2200.0 0.0 1.000 0.0 
2250.0 0.0 0.994 0.0 
2300.0 0.0 0.984 0.0 
2400.0 0.0 0.914 0.0 
2450.0 0.0 0.745 0.0 
2460.0 0.0 0.663 0.0 
2465.0 0.0 0.615 0.0 
2470.0 0.0 0.576 0.0 
2475.0 0.0 0.592 0.0 
2480.0 0.0 0.799 0.0 
2481.0 0.0 0.881 0.0 
2482.0 0.0 0.977 0.0 
2483.0 0.0 1.086 0.0 
2484.0 0.0 1.205 0.0 
2485.0 0.0 1.328 0.0 
2486.0 0.0 1.448 0.0 
2487.0 0.0 1.561 0.0 
2488.0 0.0 1.660 0.0 
2489.0 0.0 1.742 0.0 
2490.0 0.0 1.807 0.0 
2491.0 0.0 1.853 0.0 
2495.0 0.0 1.900 0.0 
2500.0 0.0 1.813 0.0 
2505.0 0.0 1.704 0.0 
2510.0 0.0 1.612 0.0 
2520.0 0.0 1.483 0.0 
2530.0 0.0 1.403 0.0 
2550.0 0.0 1.313 0.0 
2600.0 0.0 1.230 0.0 
2650.0 0.0 1.208 0.0 
2700.0 0.0 1.207 0.0 
2750.0 0.0 1.220 0.0 
2830.0 0.0 1.271 0.0 
2870.0 0.0 1.320 0.0 
2915.0 0.0 1.418 0.0 
2965.0 0.0 1.686 0.0 
2981.0 0.0 1.884 0.0 
2988.0 0.0 2.015 0.0 
2994.0 0.0 2.167 0.0 
3000.0 0.0 2.373 0.0 
3004.0 0.0 2.557 0.0 
3008.0 0.0 2.798 0.0 
3012.0 0.0 3.125 0.0 
3016.0 0.0 3.590 0.0 
3020.0 0.0 4.294 0.0 
3024.0 0.0 5.452 0.0 
3026.0 0.0 6.340 0.0 
3028.0 0.0 7.585 0.0 
3030.0 0.0 9.399 0.0 
3032.0 0.0 12.137 0.0 
3033.0 0.0 14.013 0.0 
3034.0 0.0 16.315 0.0 
3035.0 0.0 19.051 0.0 
3036.0 0.0 22.064 0.0 
3037.0 0.0 24.852 0.0 
3038.0 0.0 26.470 0.0 
3039.0 0.0 25.907 0.0 
3040.0 0.0 22.996 0.0 
3041.0 0.0 18.737 0.0 
3042.0 0.0 14.416 0.0 
3043.0 0.0 10.781 0.0 
3044.0 0.0 7.998 0.0 
3045.0 0.0 5.957 0.0 
3046.0 0.0 4.482 0.0 
3048.0 0.0 2.642 0.0 
3052.0 0.0 1.094 0.0 
3056.0 0.0 0.581 0.0 
3060.0 0.0 0.398 0.0 
3066.0 0.0 0.320 0.0 
3072.0 0.0 0.285 0.0 
3078.0 0.0 0.056 0.0 
3100.0 0.0 0.682 0.0 
3150.0 0.0 0.852 0.0 
3200.0 0.0 0.965 0.0 
3250.0 0.0 1.072 0.0 
3300.0 0.0 1.259 0.0 
3310.0 0.0 1.329 0.0 
3320.0 0.0 1.428 0.0 
3330.0 0.0 1.579 0.0 
3340.0 0.0 1.839 0.0 
3350.0 0.0 2.371 0.0 
3355.0 0.0 2.891 0.0 
3360.0 0.0 3.811 0.0 
3365.0 0.0 5.493 0.0 
3366.0 0.0 5.932 0.0 
3367.0 0.0 6.380 0.0 
3368.0 0.0 6.800 0.0 
3369.0 0.0 7.141 0.0 
3370.0 0.0 7.337 0.0 
3371.0 0.0 7.326 0.0 
3372.0 0.0 7.073 0.0 
3373.0 0.0 6.593 0.0 
3374.0 0.0 5.946 0.0 
3375.0 0.0 5.220 0.0 
3376.0 0.0 4.496 0.0 
3377.0 0.0 3.828 0.0 
3380.0 0.0 2.353 0.0 
3385.0 0.0 1.239 0.0 
3390.0 0.0 0.859 0.0 
3400.0 0.0 0.680 0.0 
3410.0 0.0 0.676 0.0 
3430.0 0.0 0.733 0.0 
3440.0 0.0 0.760 0.0 
3470.0 0.0 0.825 0.0 
3500.0 0.0 0.870 0.0 
3530.0 0.0 0.904 0.0 
3560.0 0.0 0.933 0.0 
3600.0 0.0 0.965 0.0 
3630.0 0.0 0.987 0.0 
3660.0 0.0 1.009 0.0 
3700.0 0.0 1.038 0.0 
3730.0 0.0 1.062 0.0 
3760.0 0.0 1.089 0.0 
3800.0 0.0 1.134 0.0 
3820.0 0.0 1.166 0.0 
3840.0 0.0 1.217 0.0 
3850.0 0.0 1.260 0.0 
3860.0 0.0 1.335 0.0 
3870.0 0.0 1.518 0.0 
3875.0 0.0 1.783 0.0 
3880.0 0.0 2.875 0.0 
3881.0 0.0 3.600 0.0 
3882.0 0.0 5.016 0.0 
3883.0 0.0 7.745 0.0 
3884.0 0.0 7.904 0.0 
3885.0 0.0 2.974 0.0 
3886.0 0.0 1.169 0.0 
3887.0 0.0 0.732 0.0 
3888.0 0.0 0.637 0.0 
3889.0 0.0 0.635 0.0 
3900.0 0.0 0.898 0.0 
3905.0 0.0 0.955 0.0 
3910.0 0.0 0.994 0.0 
3920.0 0.0 1.046 0.0 
3940.0 0.0 1.106 0.0 
3970.0 0.0 1.163 0.0 
4040.0 0.0 1.268 0.0 
4100.0 0.0 1.361 0.0 
4130.0 0.0 1.414 0.0 
4160.0 0.0 1.472 0.0 
4190.0 0.0 1.536 0.0 
4220.0 0.0 1.606 0.0 
4250.0 0.0 1.685 0.0 
4280.0 0.0 1.774 0.0 
4310.0 0.0 1.872 0.0 
4340.0 0.0 1.983 0.0 
4370.0 0.0 2.108 0.0 
4400.0 0.0 2.248 0.0 
4430.0 0.0 2.406 0.0 
4470.0 0.0 2.647 0.0 
4500.0 0.0 2.854 0.0 
4530.0 0.0 3.086 0.0 
4560.0 0.0 3.346 0.0 
4590.0 0.0 3.635 0.0 
4620.0 0.0 3.956 0.0 
4650.0 0.0 4.309 0.0 
4680.0 0.0 4.695 0.0 
4700.0 0.0 4.970 0.0 
4730.0 0.0 5.410 0.0 
4760.0 0.0 5.877 0.0 
4790.0 0.0 6.369 0.0 
4820.0 0.0 6.881 0.0 
4850.0 0.0 7.408 0.0 
4880.0 0.0 7.948 0.0 
4910.0 0.0 8.508 0.0 
4940.0 0.0 9.122 0.0 
4950.0 0.0 9.358 0.0 
4960.0 0.0 9.632 0.0 
4970.0 0.0 9.978 0.0 
4980.0 0.0 10.499 0.0 
4985.0 0.0 10.924 0.0 
4988.0 0.0 11.299 0.0 
4990.0 0.0 11.640 0.0 
4992.0 0.0 12.105 0.0 
4993.0 0.0 12.408 0.0 
4994.0 0.0 12.781 0.0 
4995.0 0.0 13.252 0.0 
4996.0 0.0 13.863 0.0 
4997.0 0.0 14.687 0.0 
4998.0 0.0 15.841 0.0 
4999.0 0.0 17.525 0.0 
5000.0 0.0 19.979 0.0 
5001.0 0.0 22.636 0.0 
5003.0 0.0 9.560 0.0 
5004.0 0.0 5.211 0.0 
5005.0 0.0 4.816 0.0 
5007.0 0.0 5.824 0.0 
5010.0 0.0 7.042 0.0 
5015.0 0.0 8.087 0.0 
5020.0 0.0 8.642 0.0 
5030.0 0.0 9.270 0.0 
5040.0 0.0 9.669 0.0 
5050.0 0.0 9.990 0.0 
5060.0 0.0 10.283 0.0 
5070.0 0.0 10.576 0.0 
5080.0 0.0 10.890 0.0 
5090.0 0.0 11.251 0.0 
5100.0 0.0 11.694 0.0 
5110.0 0.0 12.277 0.0 
5120.0 0.0 13.119 0.0 
5125.0 0.0 13.707 0.0 
5130.0 0.0 14.478 0.0 
5135.0 0.0 15.529 0.0 
5140.0 0.0 17.028 0.0 
5145.0 0.0 19.262 0.0 
5150.0 0.0 22.646 0.0 
5155.0 0.0 27.098 0.0 
5160.0 0.0 28.680 0.0 
5161.0 0.0 27.902 0.0 
5162.0 0.0 26.697 0.0 
5163.0 0.0 25.136 0.0 
5165.0 0.0 21.427 0.0 
5170.0 0.0 13.493 0.0 
5175.0 0.0 9.816 0.0 
5180.0 0.0 8.464 0.0 
5185.0 0.0 8.022 0.0 
5190.0 0.0 7.929 0.0 
5200.0 0.0 8.074 0.0 
5240.0 0.0 8.909 0.0 
5280.0 0.0 9.454 0.0 
5320.0 0.0 9.985 0.0 
5360.0 0.0 11.153 0.0 
5370.0 0.0 11.933 0.0 
5380.0 0.0 13.599 0.0 
5390.0 0.0 19.583 0.0 
5391.0 0.0 21.117 0.0 
5392.0 0.0 23.137 0.0 
5393.0 0.0 25.888 0.0 
5394.0 0.0 29.797 0.0 
5395.0 0.0 35.613 0.0 
5396.0 0.0 44.567 0.0 
5397.0 0.0 57.483 0.0 
5398.0 0.0 66.151 0.0 
5399.0 0.0 45.295 0.0 
5400.0 0.0 16.605 0.0 
5405.0 0.0 1.106 0.0 
5410.0 0.0 3.489 0.0 
5420.0 0.0 5.700 0.0 
5425.0 0.0 6.234 0.0 
5430.0 0.0 6.596 0.0 
5435.0 0.0 6.846 0.0 
5440.0 0.0 7.016 0.0 
5445.0 0.0 7.121 0.0 
5450.0 0.0 7.166 0.0 
5455.0 0.0 7.148 0.0 
5460.0 0.0 7.048 0.0 
5465.0 0.0 6.822 0.0 
5470.0 0.0 6.357 0.0 
5475.0 0.0 5.300 0.0 
5480.0 0.0 2.218 0.0 
5481.0 0.0 1.409 0.0 
5482.0 0.0 2.675 0.0 
5483.0 0.0 13.410 0.0 
5484.0 0.0 24.445 0.0 
5485.0 0.0 22.332 0.0 
5486.0 0.0 18.912 0.0 
5487.0 0.0 16.579 0.0 
5488.0 0.0 15.040 0.0 
5489.0 0.0 13.981 0.0 
5490.0 0.0 13.217 0.0 
5495.0 0.0 11.335 0.0 
5500.0 0.0 10.601 0.0 
5505.0 0.0 10.224 0.0 
5510.0 0.0 10.002 0.0 
5520.0 0.0 9.766 0.0 
5530.0 0.0 9.654 0.0 
5540.0 0.0 9.597 0.0 
5560.0 0.0 9.559 0.0 
5570.0 0.0 9.558 0.0 
5580.0 0.0 9.564 0.0 
5590.0 0.0 9.575 0.0 
5600.0 0.0 9.589 0.0 
5610.0 0.0 9.605 0.0 
5650.0 0.0 9.685 0.0 
5700.0 0.0 9.801 0.0 
5750.0 0.0 9.920 0.0 
5800.0 0.0 10.014 0.0 
5850.0 0.0 9.983 0.0 
5880.0 0.0 9.728 0.0 
5900.0 0.0 9.188 0.0 
5910.0 0.0 8.597 0.0 
5920.0 0.0 7.467 0.0 
5930.0 0.0 5.115 0.0 
5940.0 0.0 1.424 0.0 
5945.0 0.0 1.707 0.0 
5947.0 0.0 2.722 0.0 
5950.0 0.0 4.783 0.0 
5951.0 0.0 5.498 0.0 
5952.0 0.0 6.186 0.0 
5953.0 0.0 6.835 0.0 
5954.0 0.0 7.434 0.0 
5955.0 0.0 7.980 0.0 
5956.0 0.0 8.472 0.0 
5957.0 0.0 8.912 0.0 
5958.0 0.0 9.302 0.0 
5959.0 0.0 9.647 0.0 
5960.0 0.0 9.951 0.0 
5965.0 0.0 11.004 0.0 
5970.0 0.0 11.565 0.0 
5980.0 0.0 12.061 0.0 
5990.0 0.0 12.252 0.0 
6000.0 0.0 12.352 0.0 
6030.0 0.0 12.554 0.0 
6040.0 0.0 12.624 0.0 
6050.0 0.0 12.700 0.0 
6100.0 0.0 13.177 0.0 
6150.0 0.0 13.819 0.0 
6200.0 0.0 14.660 0.0 
6250.0 0.0 15.773 0.0 
6300.0 0.0 17.299 0.0 
6330.0 0.0 18.517 0.0 
6350.0 0.0 19.513 0.0 
6370.0 0.0 20.706 0.0 
6390.0 0.0 22.160 0.0 
6410.0 0.0 23.965 0.0 
6430.0 0.0 26.261 0.0 
6440.0 0.0 27.653 0.0 
6450.0 0.0 29.255 0.0 
6470.0 0.0 33.277 0.0 
6490.0 0.0 38.853 0.0 
6500.0 0.0 42.467 0.0 
6510.0 0.0 46.801 0.0 
6520.0 0.0 52.002 0.0 
6530.0 0.0 58.188 0.0 
6540.0 0.0 65.356 0.0 
6550.0 0.0 73.183 0.0 
6570.0 0.0 85.752 0.0 
6580.0 0.0 85.681 0.0 
6585.0 0.0 83.047 0.0 
6590.0 0.0 78.669 0.0 
6595.0 0.0 72.826 0.0 
6600.0 0.0 65.970 0.0 
6610.0 0.0 51.262 0.0 
6630.0 0.0 27.231 0.0 
6650.0 0.0 13.797 0.0 
6670.0 0.0 7.071 0.0 
6690.0 0.0 3.665 0.0 
6710.0 0.0 1.861 0.0 
6730.0 0.0 0.873 0.0 
6750.0 0.0 0.376 0.0 
6780.0 0.0 0.491 0.0 
6800.0 0.0 1.512 0.0 
6830.0 0.0 6.421 0.0 
6860.0 0.0 21.116 0.0 
6890.0 0.0 53.865 0.0 
EndData:
